Nov. 23, 2024   17:47:14
A.C. Impedance
File: e:\2023data\yx\20241123\6-1\eis.bin
Data Source:  Experiment
Instrument Model:  CHI660E
Header: 
Note: 

Init E (V) = 0.848
High Frequency (Hz) = 1e+5
Low Frequency (Hz) = 0.1
Imp SF
Amplitude (V) = 0.005
Quiet Time (sec) = 2
Cycles (.1-1Hz) = 1

Freq/Hz, Z'/ohm, Z"/ohm, Z/ohm, Phase/deg

9.995e+4, 5.072e+0, 3.690e-1, 5.086e+0, 4.2
8.252e+4, 5.078e+0, 2.983e-1, 5.087e+0, 3.4
6.812e+4, 5.087e+0, 2.364e-1, 5.093e+0, 2.7
5.625e+4, 5.062e+0, 1.870e-1, 5.065e+0, 2.1
4.644e+4, 5.042e+0, 1.469e-1, 5.044e+0, 1.7
3.833e+4, 5.017e+0, 1.160e-1, 5.019e+0, 1.3
3.164e+4, 5.027e+0, 8.948e-2, 5.027e+0, 1.0
2.612e+4, 5.056e+0, 6.627e-2, 5.056e+0, 0.8
2.153e+4, 5.066e+0, 4.874e-2, 5.067e+0, 0.6
1.777e+4, 5.062e+0, 3.578e-2, 5.062e+0, 0.4
1.470e+4, 5.070e+0, 2.460e-2, 5.070e+0, 0.3
1.211e+4, 5.084e+0, 1.594e-2, 5.084e+0, 0.2
1.001e+4, 5.099e+0, 9.235e-3, 5.099e+0, 0.1
8.252e+3, 5.105e+0, 1.974e-3, 5.105e+0, 0.0
6.812e+3, 5.104e+0, -3.605e-3, 5.104e+0, -0.0
5.625e+3, 5.112e+0, -6.088e-3, 5.112e+0, -0.1
4.643e+3, 5.126e+0, -8.865e-3, 5.126e+0, -0.1
3.833e+3, 5.113e+0, -1.171e-2, 5.113e+0, -0.1
3.164e+3, 5.093e+0, -1.439e-2, 5.093e+0, -0.2
2.612e+3, 5.085e+0, -1.704e-2, 5.085e+0, -0.2
2.153e+3, 5.076e+0, -2.010e-2, 5.076e+0, -0.2
1.777e+3, 5.083e+0, -2.296e-2, 5.083e+0, -0.3
1.470e+3, 5.109e+0, -2.564e-2, 5.109e+0, -0.3
1.211e+3, 5.104e+0, -2.958e-2, 5.104e+0, -0.3
1.001e+3, 5.058e+0, -3.223e-2, 5.058e+0, -0.4
8.252e+2, 5.020e+0, -3.406e-2, 5.020e+0, -0.4
6.836e+2, 5.002e+0, -3.799e-2, 5.002e+0, -0.4
5.615e+2, 5.008e+0, -4.417e-2, 5.008e+0, -0.5
4.639e+2, 5.010e+0, -5.209e-2, 5.010e+0, -0.6
3.809e+2, 5.009e+0, -6.122e-2, 5.009e+0, -0.7
3.174e+2, 5.018e+0, -7.203e-2, 5.019e+0, -0.8
2.588e+2, 5.035e+0, -8.480e-2, 5.036e+0, -1.0
2.148e+2, 5.036e+0, -9.956e-2, 5.037e+0, -1.1
1.758e+2, 5.019e+0, -1.162e-1, 5.021e+0, -1.3
1.465e+2, 5.007e+0, -1.351e-1, 5.009e+0, -1.5
1.221e+2, 5.012e+0, -1.559e-1, 5.014e+0, -1.8
9.766e+1, 5.034e+0, -1.685e-1, 5.037e+0, -1.9
8.254e+1, 5.062e+0, -1.828e-1, 5.066e+0, -2.1
6.813e+1, 5.081e+0, -2.174e-1, 5.086e+0, -2.4
5.623e+1, 5.092e+0, -2.671e-1, 5.099e+0, -3.0
4.642e+1, 5.112e+0, -3.279e-1, 5.123e+0, -3.7
3.831e+1, 5.130e+0, -3.986e-1, 5.145e+0, -4.4
3.162e+1, 5.155e+0, -4.798e-1, 5.177e+0, -5.3
2.610e+1, 5.202e+0, -5.741e-1, 5.234e+0, -6.3
2.154e+1, 5.265e+0, -6.832e-1, 5.309e+0, -7.4
1.778e+1, 5.329e+0, -8.083e-1, 5.390e+0, -8.6
1.468e+1, 5.391e+0, -9.489e-1, 5.474e+0, -10.0
1.212e+1, 5.469e+0, -1.105e+0, 5.579e+0, -11.4
1.000e+1, 5.590e+0, -1.266e+0, 5.732e+0, -12.8
8.254e+0, 5.741e+0, -1.434e+0, 5.918e+0, -14.0
6.813e+0, 5.912e+0, -1.629e+0, 6.132e+0, -15.4
5.623e+0, 6.138e+0, -1.850e+0, 6.411e+0, -16.8
4.642e+0, 6.426e+0, -2.087e+0, 6.757e+0, -18.0
3.831e+0, 6.776e+0, -2.331e+0, 7.166e+0, -19.0
3.162e+0, 7.187e+0, -2.574e+0, 7.634e+0, -19.7
2.610e+0, 7.645e+0, -2.782e+0, 8.135e+0, -20.0
2.154e+0, 8.125e+0, -2.912e+0, 8.631e+0, -19.7
1.778e+0, 8.688e+0, -2.966e+0, 9.181e+0, -18.8
1.468e+0, 9.256e+0, -2.942e+0, 9.713e+0, -17.6
1.212e+0, 9.779e+0, -2.851e+0, 1.019e+1, -16.3
1.000e+0, 1.023e+1, -2.664e+0, 1.057e+1, -14.6
8.254e-1, 1.055e+1, -2.440e+0, 1.083e+1, -13.0
6.813e-1, 1.082e+1, -2.214e+0, 1.104e+1, -11.6
5.623e-1, 1.107e+1, -1.951e+0, 1.124e+1, -10.0
4.642e-1, 1.133e+1, -1.749e+0, 1.146e+1, -8.8
3.831e-1, 1.153e+1, -1.591e+0, 1.164e+1, -7.9
3.162e-1, 1.166e+1, -1.380e+0, 1.174e+1, -6.7
2.610e-1, 1.183e+1, -1.182e+0, 1.189e+1, -5.7
2.154e-1, 1.191e+1, -1.042e+0, 1.196e+1, -5.0
1.778e-1, 1.191e+1, -8.968e-1, 1.194e+1, -4.3
1.468e-1, 1.215e+1, -6.746e-1, 1.217e+1, -3.2
1.212e-1, 1.226e+1, -5.129e-1, 1.227e+1, -2.4
1.000e-1, 1.204e+1, -5.083e-1, 1.205e+1, -2.4
