Nov. 23, 2024   16:33:23
Linear Sweep Voltammetry
File: d:\yx\20241123\6-3\lsv.csv
Data Source:  Experiment
Instrument Model:  CHI660E
Header: 
Note: 

Init E (V) = 0.548
Final E (V) = 1.348
Scan Rate (V/s) = 0.005
Sample Interval (V) = 0.001
Quiet Time (sec) = 2

Results:

Channel 1:

Potential/V, Current/A

0.548, 2.400e-5
0.549, 8.638e-5
0.550, 1.055e-4
0.551, 1.149e-4
0.552, 1.161e-4
0.553, 1.179e-4
0.554, 1.193e-4
0.555, 1.218e-4
0.556, 1.266e-4
0.557, 1.295e-4
0.558, 1.319e-4
0.559, 1.312e-4
0.560, 1.293e-4
0.561, 1.295e-4
0.562, 1.327e-4
0.563, 1.362e-4
0.564, 1.377e-4
0.565, 1.360e-4
0.566, 1.342e-4
0.567, 1.347e-4
0.568, 1.361e-4
0.569, 1.403e-4
0.570, 1.412e-4
0.571, 1.398e-4
0.572, 1.373e-4
0.573, 1.379e-4
0.574, 1.406e-4
0.575, 1.440e-4
0.576, 1.431e-4
0.577, 1.414e-4
0.578, 1.386e-4
0.579, 1.395e-4
0.580, 1.422e-4
0.581, 1.447e-4
0.582, 1.447e-4
0.583, 1.414e-4
0.584, 1.401e-4
0.585, 1.427e-4
0.586, 1.473e-4
0.587, 1.476e-4
0.588, 1.470e-4
0.589, 1.431e-4
0.590, 1.418e-4
0.591, 1.455e-4
0.592, 1.484e-4
0.593, 1.489e-4
0.594, 1.461e-4
0.595, 1.440e-4
0.596, 1.440e-4
0.597, 1.465e-4
0.598, 1.495e-4
0.599, 1.503e-4
0.600, 1.481e-4
0.601, 1.469e-4
0.602, 1.458e-4
0.603, 1.472e-4
0.604, 1.513e-4
0.605, 1.518e-4
0.606, 1.497e-4
0.607, 1.468e-4
0.608, 1.472e-4
0.609, 1.491e-4
0.610, 1.518e-4
0.611, 1.524e-4
0.612, 1.511e-4
0.613, 1.482e-4
0.614, 1.483e-4
0.615, 1.517e-4
0.616, 1.525e-4
0.617, 1.527e-4
0.618, 1.488e-4
0.619, 1.464e-4
0.620, 1.491e-4
0.621, 1.539e-4
0.622, 1.534e-4
0.623, 1.495e-4
0.624, 1.483e-4
0.625, 1.516e-4
0.626, 1.550e-4
0.627, 1.553e-4
0.628, 1.538e-4
0.629, 1.512e-4
0.630, 1.510e-4
0.631, 1.539e-4
0.632, 1.560e-4
0.633, 1.534e-4
0.634, 1.509e-4
0.635, 1.514e-4
0.636, 1.556e-4
0.637, 1.578e-4
0.638, 1.561e-4
0.639, 1.543e-4
0.640, 1.531e-4
0.641, 1.543e-4
0.642, 1.583e-4
0.643, 1.585e-4
0.644, 1.586e-4
0.645, 1.567e-4
0.646, 1.528e-4
0.647, 1.556e-4
0.648, 1.565e-4
0.649, 1.586e-4
0.650, 1.603e-4
0.651, 1.618e-4
0.652, 1.582e-4
0.653, 1.559e-4
0.654, 1.572e-4
0.655, 1.574e-4
0.656, 1.589e-4
0.657, 1.625e-4
0.658, 1.619e-4
0.659, 1.586e-4
0.660, 1.592e-4
0.661, 1.600e-4
0.662, 1.622e-4
0.663, 1.649e-4
0.664, 1.624e-4
0.665, 1.608e-4
0.666, 1.589e-4
0.667, 1.602e-4
0.668, 1.653e-4
0.669, 1.639e-4
0.670, 1.617e-4
0.671, 1.607e-4
0.672, 1.619e-4
0.673, 1.653e-4
0.674, 1.647e-4
0.675, 1.626e-4
0.676, 1.616e-4
0.677, 1.622e-4
0.678, 1.664e-4
0.679, 1.685e-4
0.680, 1.635e-4
0.681, 1.627e-4
0.682, 1.629e-4
0.683, 1.662e-4
0.684, 1.682e-4
0.685, 1.659e-4
0.686, 1.639e-4
0.687, 1.660e-4
0.688, 1.684e-4
0.689, 1.703e-4
0.690, 1.688e-4
0.691, 1.658e-4
0.692, 1.674e-4
0.693, 1.706e-4
0.694, 1.717e-4
0.695, 1.704e-4
0.696, 1.664e-4
0.697, 1.709e-4
0.698, 1.722e-4
0.699, 1.732e-4
0.700, 1.729e-4
0.701, 1.700e-4
0.702, 1.699e-4
0.703, 1.735e-4
0.704, 1.747e-4
0.705, 1.768e-4
0.706, 1.774e-4
0.707, 1.737e-4
0.708, 1.736e-4
0.709, 1.736e-4
0.710, 1.772e-4
0.711, 1.803e-4
0.712, 1.775e-4
0.713, 1.770e-4
0.714, 1.751e-4
0.715, 1.769e-4
0.716, 1.815e-4
0.717, 1.795e-4
0.718, 1.765e-4
0.719, 1.767e-4
0.720, 1.764e-4
0.721, 1.794e-4
0.722, 1.816e-4
0.723, 1.783e-4
0.724, 1.791e-4
0.725, 1.834e-4
0.726, 1.868e-4
0.727, 1.876e-4
0.728, 1.822e-4
0.729, 1.819e-4
0.730, 1.837e-4
0.731, 1.854e-4
0.732, 1.847e-4
0.733, 1.806e-4
0.734, 1.829e-4
0.735, 1.881e-4
0.736, 1.900e-4
0.737, 1.908e-4
0.738, 1.903e-4
0.739, 1.899e-4
0.740, 1.927e-4
0.741, 1.949e-4
0.742, 1.969e-4
0.743, 1.969e-4
0.744, 1.952e-4
0.745, 1.972e-4
0.746, 2.012e-4
0.747, 2.026e-4
0.748, 2.083e-4
0.749, 2.063e-4
0.750, 2.034e-4
0.751, 2.056e-4
0.752, 2.088e-4
0.753, 2.151e-4
0.754, 2.181e-4
0.755, 2.191e-4
0.756, 2.181e-4
0.757, 2.191e-4
0.758, 2.239e-4
0.759, 2.303e-4
0.760, 2.331e-4
0.761, 2.356e-4
0.762, 2.365e-4
0.763, 2.356e-4
0.764, 2.425e-4
0.765, 2.504e-4
0.766, 2.595e-4
0.767, 2.633e-4
0.768, 2.659e-4
0.769, 2.739e-4
0.770, 2.809e-4
0.771, 2.890e-4
0.772, 2.969e-4
0.773, 3.022e-4
0.774, 3.049e-4
0.775, 3.123e-4
0.776, 3.228e-4
0.777, 3.348e-4
0.778, 3.468e-4
0.779, 3.582e-4
0.780, 3.683e-4
0.781, 3.776e-4
0.782, 3.911e-4
0.783, 4.056e-4
0.784, 4.200e-4
0.785, 4.391e-4
0.786, 4.523e-4
0.787, 4.696e-4
0.788, 4.840e-4
0.789, 5.044e-4
0.790, 5.274e-4
0.791, 5.502e-4
0.792, 5.730e-4
0.793, 5.936e-4
0.794, 6.182e-4
0.795, 6.453e-4
0.796, 6.758e-4
0.797, 7.059e-4
0.798, 7.367e-4
0.799, 7.672e-4
0.800, 7.961e-4
0.801, 8.297e-4
0.802, 8.663e-4
0.803, 9.038e-4
0.804, 9.478e-4
0.805, 9.872e-4
0.806, 1.026e-3
0.807, 1.067e-3
0.808, 1.109e-3
0.809, 1.162e-3
0.810, 1.209e-3
0.811, 1.261e-3
0.812, 1.312e-3
0.813, 1.357e-3
0.814, 1.413e-3
0.815, 1.471e-3
0.816, 1.530e-3
0.817, 1.594e-3
0.818, 1.647e-3
0.819, 1.710e-3
0.820, 1.774e-3
0.821, 1.844e-3
0.822, 1.916e-3
0.823, 1.984e-3
0.824, 2.054e-3
0.825, 2.123e-3
0.826, 2.196e-3
0.827, 2.279e-3
0.828, 2.346e-3
0.829, 2.430e-3
0.830, 2.515e-3
0.831, 2.589e-3
0.832, 2.671e-3
0.833, 2.756e-3
0.834, 2.844e-3
0.835, 2.939e-3
0.836, 3.023e-3
0.837, 3.105e-3
0.838, 3.200e-3
0.839, 3.295e-3
0.840, 3.394e-3
0.841, 3.486e-3
0.842, 3.588e-3
0.843, 3.683e-3
0.844, 3.788e-3
0.845, 3.902e-3
0.846, 4.006e-3
0.847, 4.114e-3
0.848, 4.219e-3
0.849, 4.326e-3
0.850, 4.425e-3
0.851, 4.539e-3
0.852, 4.659e-3
0.853, 4.767e-3
0.854, 4.890e-3
0.855, 4.997e-3
0.856, 5.099e-3
0.857, 5.210e-3
0.858, 5.333e-3
0.859, 5.447e-3
0.860, 5.573e-3
0.861, 5.690e-3
0.862, 5.795e-3
0.863, 5.911e-3
0.864, 6.031e-3
0.865, 6.145e-3
0.866, 6.250e-3
0.867, 6.376e-3
0.868, 6.499e-3
0.869, 6.625e-3
0.870, 6.755e-3
0.871, 6.878e-3
0.872, 7.019e-3
0.873, 7.155e-3
0.874, 7.287e-3
0.875, 7.444e-3
0.876, 7.607e-3
0.877, 7.715e-3
0.878, 7.835e-3
0.879, 7.952e-3
0.880, 8.060e-3
0.881, 8.183e-3
0.882, 8.312e-3
0.883, 8.447e-3
0.884, 8.604e-3
0.885, 8.728e-3
0.886, 8.860e-3
0.887, 8.998e-3
0.888, 9.118e-3
0.889, 9.229e-3
0.890, 9.346e-3
0.891, 9.457e-3
0.892, 9.599e-3
0.893, 9.777e-3
0.894, 9.919e-3
0.895, 1.007e-2
0.896, 1.021e-2
0.897, 1.033e-2
0.898, 1.044e-2
0.899, 1.056e-2
0.900, 1.069e-2
0.901, 1.080e-2
0.902, 1.094e-2
0.903, 1.125e-2
0.904, 1.140e-2
0.905, 1.152e-2
0.906, 1.166e-2
0.907, 1.182e-2
0.908, 1.191e-2
0.909, 1.218e-2
0.910, 1.234e-2
0.911, 1.244e-2
0.912, 1.256e-2
0.913, 1.267e-2
0.914, 1.282e-2
0.915, 1.295e-2
0.916, 1.310e-2
0.917, 1.329e-2
0.918, 1.338e-2
0.919, 1.348e-2
0.920, 1.363e-2
0.921, 1.386e-2
0.922, 1.400e-2
0.923, 1.414e-2
0.924, 1.430e-2
0.925, 1.439e-2
0.926, 1.463e-2
0.927, 1.478e-2
0.928, 1.494e-2
0.929, 1.504e-2
0.930, 1.514e-2
0.931, 1.533e-2
0.932, 1.543e-2
0.933, 1.553e-2
0.934, 1.568e-2
0.935, 1.583e-2
0.936, 1.594e-2
0.937, 1.618e-2
0.938, 1.644e-2
0.939, 1.650e-2
0.940, 1.660e-2
0.941, 1.676e-2
0.942, 1.689e-2
0.943, 1.706e-2
0.944, 1.714e-2
0.945, 1.736e-2
0.946, 1.741e-2
0.947, 1.760e-2
0.948, 1.788e-2
0.949, 1.815e-2
0.950, 1.832e-2
0.951, 1.845e-2
0.952, 1.860e-2
0.953, 1.878e-2
0.954, 1.884e-2
0.955, 1.906e-2
0.956, 1.920e-2
0.957, 1.935e-2
0.958, 1.945e-2
0.959, 1.955e-2
0.960, 1.974e-2
0.961, 2.004e-2
0.962, 2.014e-2
0.963, 2.014e-2
0.964, 2.020e-2
0.965, 2.042e-2
0.966, 2.064e-2
0.967, 2.078e-2
0.968, 2.096e-2
0.969, 2.116e-2
0.970, 2.119e-2
0.971, 2.144e-2
0.972, 2.153e-2
0.973, 2.176e-2
0.974, 2.184e-2
0.975, 2.193e-2
0.976, 2.205e-2
0.977, 2.216e-2
0.978, 2.245e-2
0.979, 2.274e-2
0.980, 2.284e-2
0.981, 2.294e-2
0.982, 2.309e-2
0.983, 2.320e-2
0.984, 2.344e-2
0.985, 2.350e-2
0.986, 2.370e-2
0.987, 2.413e-2
0.988, 2.418e-2
0.989, 2.432e-2
0.990, 2.466e-2
0.991, 2.481e-2
0.992, 2.497e-2
0.993, 2.515e-2
0.994, 2.515e-2
0.995, 2.555e-2
0.996, 2.556e-2
0.997, 2.563e-2
0.998, 2.577e-2
0.999, 2.598e-2
1.000, 2.603e-2
1.001, 2.629e-2
1.002, 2.643e-2
1.003, 2.662e-2
1.004, 2.673e-2
1.005, 2.688e-2
1.006, 2.697e-2
1.007, 2.733e-2
1.008, 2.729e-2
1.009, 2.730e-2
1.010, 2.756e-2
1.011, 2.776e-2
1.012, 2.784e-2
1.013, 2.812e-2
1.014, 2.846e-2
1.015, 2.847e-2
1.016, 2.865e-2
1.017, 2.899e-2
1.018, 2.908e-2
1.019, 2.912e-2
1.020, 2.928e-2
1.021, 2.918e-2
1.022, 2.932e-2
1.023, 2.970e-2
1.024, 2.993e-2
1.025, 3.015e-2
1.026, 3.031e-2
1.027, 3.062e-2
1.028, 3.086e-2
1.029, 3.086e-2
1.030, 3.111e-2
1.031, 3.114e-2
1.032, 3.105e-2
1.033, 3.129e-2
1.034, 3.132e-2
1.035, 3.191e-2
1.036, 3.215e-2
1.037, 3.249e-2
1.038, 3.231e-2
1.039, 3.268e-2
1.040, 3.277e-2
1.041, 3.295e-2
1.042, 3.320e-2
1.043, 3.320e-2
1.044, 3.335e-2
1.045, 3.348e-2
1.046, 3.372e-2
1.047, 3.400e-2
1.048, 3.412e-2
1.049, 3.415e-2
1.050, 3.428e-2
1.051, 3.428e-2
1.052, 3.440e-2
1.053, 3.483e-2
1.054, 3.486e-2
1.055, 3.474e-2
1.056, 3.505e-2
1.057, 3.529e-2
1.058, 3.575e-2
1.059, 3.579e-2
1.060, 3.600e-2
1.061, 3.600e-2
1.062, 3.594e-2
1.063, 3.659e-2
1.064, 3.754e-2
1.065, 3.782e-2
1.066, 3.806e-2
1.067, 3.809e-2
1.068, 3.797e-2
1.069, 3.893e-2
1.070, 3.880e-2
1.071, 3.893e-2
1.072, 3.893e-2
1.073, 3.908e-2
1.074, 3.936e-2
1.075, 3.936e-2
1.076, 3.948e-2
1.077, 3.969e-2
1.078, 4.003e-2
1.079, 4.009e-2
1.080, 4.003e-2
1.081, 4.016e-2
1.082, 4.062e-2
1.083, 4.071e-2
1.084, 4.093e-2
1.085, 4.093e-2
1.086, 4.099e-2
1.087, 4.099e-2
1.088, 4.108e-2
1.089, 4.154e-2
1.090, 4.197e-2
1.091, 4.179e-2
1.092, 4.213e-2
1.093, 4.185e-2
1.094, 4.271e-2
1.095, 4.290e-2
1.096, 4.283e-2
1.097, 4.311e-2
1.098, 4.311e-2
1.099, 4.323e-2
1.100, 4.317e-2
1.101, 4.357e-2
1.102, 4.370e-2
1.103, 4.382e-2
1.104, 4.376e-2
1.105, 4.403e-2
1.106, 4.388e-2
1.107, 4.425e-2
1.108, 4.437e-2
1.109, 4.483e-2
1.110, 4.477e-2
1.111, 4.520e-2
1.112, 4.545e-2
1.113, 4.600e-2
1.114, 4.616e-2
1.115, 4.628e-2
1.116, 4.625e-2
1.117, 4.631e-2
1.118, 4.610e-2
1.119, 4.653e-2
1.120, 4.677e-2
1.121, 4.677e-2
1.122, 4.717e-2
1.123, 4.757e-2
1.124, 4.727e-2
1.125, 4.742e-2
1.126, 4.763e-2
1.127, 4.779e-2
1.128, 4.760e-2
1.129, 4.794e-2
1.130, 4.773e-2
1.131, 4.819e-2
1.132, 4.874e-2
1.133, 4.917e-2
1.134, 4.930e-2
1.135, 4.927e-2
1.136, 4.957e-2
1.137, 4.936e-2
1.138, 4.964e-2
1.139, 4.982e-2
1.140, 4.997e-2
1.141, 4.988e-2
1.142, 4.991e-2
1.143, 5.013e-2
1.144, 5.062e-2
1.145, 5.127e-2
1.146, 5.133e-2
1.147, 5.176e-2
1.148, 5.148e-2
1.149, 5.161e-2
1.150, 5.170e-2
1.151, 5.167e-2
1.152, 5.167e-2
1.153, 5.204e-2
1.154, 5.173e-2
1.155, 5.262e-2
1.156, 5.385e-2
1.157, 5.410e-2
1.158, 5.401e-2
1.159, 5.413e-2
1.160, 5.407e-2
1.161, 5.382e-2
1.162, 5.407e-2
1.163, 5.376e-2
1.164, 5.407e-2
1.165, 5.419e-2
1.166, 5.437e-2
1.167, 5.474e-2
1.168, 5.533e-2
1.169, 5.638e-2
1.170, 5.613e-2
1.171, 5.619e-2
1.172, 5.665e-2
1.173, 5.644e-2
1.174, 5.634e-2
1.175, 5.638e-2
1.176, 5.607e-2
1.177, 5.705e-2
1.178, 5.804e-2
1.179, 5.795e-2
1.180, 5.767e-2
1.181, 5.798e-2
1.182, 5.791e-2
1.183, 5.798e-2
1.184, 5.813e-2
1.185, 5.795e-2
1.186, 5.798e-2
1.187, 5.844e-2
1.188, 5.831e-2
1.189, 5.819e-2
1.190, 5.853e-2
1.191, 5.884e-2
1.192, 5.896e-2
1.193, 5.939e-2
1.194, 5.985e-2
1.195, 6.025e-2
1.196, 6.016e-2
1.197, 6.019e-2
1.198, 6.071e-2
1.199, 6.059e-2
1.200, 6.102e-2
1.201, 6.133e-2
1.202, 6.136e-2
1.203, 6.130e-2
1.204, 6.158e-2
1.205, 6.105e-2
1.206, 6.148e-2
1.207, 6.185e-2
1.208, 6.225e-2
1.209, 6.222e-2
1.210, 6.250e-2
1.211, 6.225e-2
1.212, 6.232e-2
1.213, 6.345e-2
1.214, 6.382e-2
1.215, 6.447e-2
1.216, 6.459e-2
1.217, 6.453e-2
1.218, 6.422e-2
1.219, 6.395e-2
1.220, 6.441e-2
1.221, 6.382e-2
1.222, 6.425e-2
1.223, 6.453e-2
1.224, 6.585e-2
1.225, 6.638e-2
1.226, 6.589e-2
1.227, 6.589e-2
1.228, 6.601e-2
1.229, 6.570e-2
1.230, 6.582e-2
1.231, 6.736e-2
1.232, 6.770e-2
1.233, 6.752e-2
1.234, 6.801e-2
1.235, 6.826e-2
1.236, 6.795e-2
1.237, 6.773e-2
1.238, 6.690e-2
1.239, 6.807e-2
1.240, 6.826e-2
1.241, 6.755e-2
1.242, 6.789e-2
1.243, 6.804e-2
1.244, 6.804e-2
1.245, 6.764e-2
1.246, 6.733e-2
1.247, 7.047e-2
1.248, 7.093e-2
1.249, 7.133e-2
1.250, 7.047e-2
1.251, 7.075e-2
1.252, 7.053e-2
1.253, 7.041e-2
1.254, 7.090e-2
1.255, 7.066e-2
1.256, 7.130e-2
1.257, 7.130e-2
1.258, 7.084e-2
1.259, 7.087e-2
1.260, 7.136e-2
1.261, 7.404e-2
1.262, 7.410e-2
1.263, 7.407e-2
1.264, 7.361e-2
1.265, 7.395e-2
1.266, 7.416e-2
1.267, 7.389e-2
1.268, 7.401e-2
1.269, 7.407e-2
1.270, 7.426e-2
1.271, 7.426e-2
1.272, 7.453e-2
1.273, 7.521e-2
1.274, 7.496e-2
1.275, 7.493e-2
1.276, 7.450e-2
1.277, 7.490e-2
1.278, 7.490e-2
1.279, 7.490e-2
1.280, 7.518e-2
1.281, 7.481e-2
1.282, 7.515e-2
1.283, 7.536e-2
1.284, 7.558e-2
1.285, 7.675e-2
1.286, 7.629e-2
1.287, 7.718e-2
1.288, 7.644e-2
1.289, 7.706e-2
1.290, 7.764e-2
1.291, 7.737e-2
1.292, 7.737e-2
1.293, 7.681e-2
1.294, 7.737e-2
1.295, 7.740e-2
1.296, 7.715e-2
1.297, 7.709e-2
1.298, 7.746e-2
1.299, 7.724e-2
1.300, 7.672e-2
1.301, 7.786e-2
1.302, 7.866e-2
1.303, 7.844e-2
1.304, 7.890e-2
1.305, 7.903e-2
1.306, 7.897e-2
1.307, 7.921e-2
1.308, 8.192e-2
1.309, 8.223e-2
1.310, 8.260e-2
1.311, 8.300e-2
1.312, 8.294e-2
1.313, 8.238e-2
1.314, 8.327e-2
1.315, 8.306e-2
1.316, 8.309e-2
1.317, 8.327e-2
1.318, 8.306e-2
1.319, 8.374e-2
1.320, 8.398e-2
1.321, 8.386e-2
1.322, 8.395e-2
1.323, 8.404e-2
1.324, 8.371e-2
1.325, 8.429e-2
1.326, 8.383e-2
1.327, 8.534e-2
1.328, 8.503e-2
1.329, 8.524e-2
1.330, 8.515e-2
1.331, 8.494e-2
1.332, 8.592e-2
1.333, 8.555e-2
1.334, 8.564e-2
1.335, 8.567e-2
1.336, 8.598e-2
1.337, 8.608e-2
1.338, 8.620e-2
1.339, 8.561e-2
1.340, 8.675e-2
1.341, 8.617e-2
1.342, 8.684e-2
1.343, 8.638e-2
1.344, 8.669e-2
1.345, 8.608e-2
1.346, 8.644e-2
1.347, 8.743e-2
